"LbLPEIPAZO_145047.spc - RawData"
"Wavelength nm.","Abs."
400.00,0.135620
401.00,0.133560
402.00,0.131424
403.00,0.129486
404.00,0.127380
405.00,0.125519
406.00,0.123627
407.00,0.121765
408.00,0.119949
409.00,0.118393
410.00,0.116699
411.00,0.115021
412.00,0.113571
413.00,0.112122
414.00,0.110718
415.00,0.109421
416.00,0.108322
417.00,0.107300
418.00,0.106186
419.00,0.105103
420.00,0.104172
421.00,0.103256
422.00,0.102524
423.00,0.101837
424.00,0.101089
425.00,0.100601
426.00,0.100006
427.00,0.099243
428.00,0.098984
429.00,0.098663
430.00,0.098267
431.00,0.098099
432.00,0.097992
433.00,0.097809
434.00,0.097702
435.00,0.097626
436.00,0.097672
437.00,0.097687
438.00,0.097931
439.00,0.098053
440.00,0.098297
441.00,0.098572
442.00,0.098923
443.00,0.099274
444.00,0.099579
445.00,0.099945
446.00,0.100510
447.00,0.101166
448.00,0.101837
449.00,0.102493
450.00,0.103104
451.00,0.103729
452.00,0.104553
453.00,0.105347
454.00,0.106125
455.00,0.106934
456.00,0.107773
457.00,0.108719
458.00,0.109634
459.00,0.110718
460.00,0.111786
461.00,0.112839
462.00,0.113968
463.00,0.115067
464.00,0.116287
465.00,0.117523
466.00,0.118713
467.00,0.120209
468.00,0.121490
469.00,0.122864
470.00,0.124329
471.00,0.125732
472.00,0.127335
473.00,0.128784
474.00,0.130280
475.00,0.131912
476.00,0.133545
477.00,0.135254
478.00,0.136887
479.00,0.138535
480.00,0.140259
481.00,0.141907
482.00,0.143616
483.00,0.145477
484.00,0.147186
485.00,0.148941
486.00,0.150955
487.00,0.152756
488.00,0.154556
489.00,0.156342
490.00,0.158340
491.00,0.160233
492.00,0.162186
493.00,0.164261
494.00,0.166153
495.00,0.168137
496.00,0.170059
497.00,0.171844
498.00,0.173965
499.00,0.175980
500.00,0.177933
501.00,0.179977
502.00,0.181946
503.00,0.184006
504.00,0.185898
505.00,0.187866
506.00,0.189728
507.00,0.191788
508.00,0.193848
509.00,0.195831
510.00,0.197800
511.00,0.199738
512.00,0.201797
513.00,0.203796
514.00,0.205734
515.00,0.207794
516.00,0.209869
517.00,0.211868
518.00,0.213928
519.00,0.216049
520.00,0.218140
521.00,0.220139
522.00,0.222214
523.00,0.224274
524.00,0.226227
525.00,0.228226
526.00,0.230423
527.00,0.232483
528.00,0.234558
529.00,0.236664
530.00,0.238678
531.00,0.240906
532.00,0.242920
533.00,0.244995
534.00,0.247040
535.00,0.249283
536.00,0.251450
537.00,0.253647
538.00,0.255905
539.00,0.258179
540.00,0.260437
541.00,0.262848
542.00,0.265045
543.00,0.267456
544.00,0.269989
545.00,0.272385
546.00,0.274780
547.00,0.277191
548.00,0.279709
549.00,0.282242
550.00,0.284729
551.00,0.287277
552.00,0.289749
553.00,0.292389
554.00,0.294968
555.00,0.297638
556.00,0.300140
557.00,0.302719
558.00,0.305283
559.00,0.307983
560.00,0.310638
561.00,0.313278
562.00,0.315918
563.00,0.318588
564.00,0.321045
565.00,0.323853
566.00,0.326462
567.00,0.328979
568.00,0.331375
569.00,0.333923
570.00,0.336395
571.00,0.338623
572.00,0.341095
573.00,0.343414
574.00,0.345673
575.00,0.347855
576.00,0.350098
577.00,0.352081
578.00,0.354034
579.00,0.355820
580.00,0.357666
581.00,0.359360
582.00,0.360931
583.00,0.362457
584.00,0.363846
585.00,0.365189
586.00,0.366379
587.00,0.367416
588.00,0.368530
589.00,0.369553
590.00,0.370361
591.00,0.370972
592.00,0.371567
593.00,0.371994
594.00,0.372253
595.00,0.372360
596.00,0.372498
597.00,0.372269
598.00,0.371994
599.00,0.371552
600.00,0.370987
601.00,0.370285
602.00,0.369446
603.00,0.368484
604.00,0.367325
605.00,0.366089
606.00,0.364594
607.00,0.362930
608.00,0.361084
609.00,0.359207
610.00,0.357056
611.00,0.354752
612.00,0.352325
613.00,0.349747
614.00,0.346848
615.00,0.343918
616.00,0.340958
617.00,0.337631
618.00,0.334244
619.00,0.330734
620.00,0.327057
621.00,0.323227
622.00,0.319275
623.00,0.315063
624.00,0.310730
625.00,0.306503
626.00,0.302109
627.00,0.297531
628.00,0.293106
629.00,0.288559
630.00,0.283676
631.00,0.278931
632.00,0.274139
633.00,0.269211
634.00,0.264175
635.00,0.259079
636.00,0.253845
637.00,0.248383
638.00,0.243256
639.00,0.238052
640.00,0.232666
641.00,0.227600
642.00,0.222504
643.00,0.217239
644.00,0.211945
645.00,0.206802
646.00,0.201660
647.00,0.196716
648.00,0.191772
649.00,0.186707
650.00,0.181900
651.00,0.177185
652.00,0.172424
653.00,0.167572
654.00,0.162979
655.00,0.158401
656.00,0.153961
657.00,0.149628
658.00,0.145065
659.00,0.140869
660.00,0.136810
661.00,0.132507
662.00,0.128311
663.00,0.124405
664.00,0.120544
665.00,0.116852
666.00,0.113235
667.00,0.109558
668.00,0.106079
669.00,0.102661
670.00,0.099258
671.00,0.096024
672.00,0.092957
673.00,0.089951
674.00,0.087051
675.00,0.084259
676.00,0.081589
677.00,0.078888
678.00,0.076385
679.00,0.074005
680.00,0.071655
681.00,0.069305
682.00,0.067169
683.00,0.064972
684.00,0.062805
685.00,0.060760
686.00,0.058792
687.00,0.056839
688.00,0.055084
689.00,0.053329
690.00,0.051743
691.00,0.050003
692.00,0.048477
693.00,0.046951
694.00,0.045502
695.00,0.044144
696.00,0.042786
697.00,0.041519
698.00,0.040359
699.00,0.039108
700.00,0.038025
701.00,0.036942
702.00,0.035934
703.00,0.034927
704.00,0.033875
705.00,0.032928
706.00,0.031982
707.00,0.031143
708.00,0.030212
709.00,0.029404
710.00,0.028610
711.00,0.027878
712.00,0.027115
713.00,0.026367
714.00,0.025711
715.00,0.025085
716.00,0.024475
717.00,0.023849
718.00,0.023254
719.00,0.022675
720.00,0.022095
721.00,0.021606
722.00,0.021179
723.00,0.020660
724.00,0.020203
725.00,0.019730
726.00,0.019272
727.00,0.018829
728.00,0.018448
729.00,0.018051
730.00,0.017670
731.00,0.017319
732.00,0.016937
733.00,0.016602
734.00,0.016251
735.00,0.015945
736.00,0.015640
737.00,0.015335
738.00,0.015045
739.00,0.014709
740.00,0.014465
741.00,0.014236
742.00,0.013947
743.00,0.013702
744.00,0.013535
745.00,0.013275
746.00,0.013062
747.00,0.012848
748.00,0.012634
749.00,0.012390
750.00,0.012222
751.00,0.012024
752.00,0.011826
753.00,0.011673
754.00,0.011520
755.00,0.011307
756.00,0.011185
757.00,0.011002
758.00,0.010864
759.00,0.010696
760.00,0.010574
761.00,0.010559
762.00,0.010437
763.00,0.010223
764.00,0.010086
765.00,0.010010
766.00,0.009857
767.00,0.009766
768.00,0.009583
769.00,0.009491
770.00,0.009430
771.00,0.009262
772.00,0.009216
773.00,0.009109
774.00,0.009003
775.00,0.008865
776.00,0.008743
777.00,0.008682
778.00,0.008652
779.00,0.008545
780.00,0.008453
781.00,0.008331
782.00,0.008286
783.00,0.008148
784.00,0.008087
785.00,0.008011
786.00,0.007950
787.00,0.007889
788.00,0.007797
789.00,0.007706
790.00,0.007645
791.00,0.007553
792.00,0.007507
793.00,0.007462
794.00,0.007401
795.00,0.007324
796.00,0.007278
797.00,0.007217
798.00,0.007187
799.00,0.007065
800.00,0.007034
